 wavelength(num) SRF
   8.800     3.6861E-04
   8.820     2.9838E-04
   8.840     4.8992E-04
   8.860     6.6138E-05
   8.880     1.7468E-04
   8.900     9.3140E-05
   8.920     2.7873E-06
   8.940     1.6380E-04
   8.960     3.2264E-05
   8.980    -2.4380E-05
   9.000    -8.6566E-06
   9.020     1.3346E-05
   9.040     2.7965E-05
   9.060     5.1193E-05
   9.080    -1.1371E-04
   9.100    -2.1066E-05
   9.120    -1.2132E-04
   9.140    -8.8341E-06
   9.160     9.4186E-06
   9.180    -4.0183E-05
   9.200    -4.8348E-05
   9.220     1.6809E-04
   9.240     1.5505E-04
   9.260     1.3673E-04
   9.280    -1.5771E-05
   9.300     1.2265E-04
   9.320    -7.9080E-05
   9.340    -1.6404E-04
   9.360     5.6598E-04
   9.380     1.8401E-04
   9.400     8.2740E-05
   9.420    -6.3869E-05
   9.440    -7.9399E-05
   9.460    -1.6312E-04
   9.480     1.3116E-04
   9.500    -1.6674E-04
   9.520    -5.8907E-06
   9.540    -2.5484E-04
   9.560    -1.8493E-04
   9.580     4.4130E-05
   9.600    -1.7856E-05
   9.620    -2.8859E-05
   9.640     2.3102E-04
   9.660    -1.8940E-04
   9.680    -5.1825E-05
   9.700    -2.3170E-04
   9.720    -2.2936E-04
   9.740    -3.0975E-04
   9.760    -2.2820E-04
   9.780    -1.6011E-04
   9.800    -2.8371E-05
   9.820    -2.4630E-04
   9.840     3.8566E-05
   9.860    -1.6060E-04
   9.880    -3.6850E-05
   9.900     1.5881E-04
   9.920     7.1544E-05
   9.940    -3.6366E-04
   9.960     2.6271E-05
   9.980     2.9011E-04
  10.000     6.3338E-04
  10.020     1.3145E-03
  10.040     2.6344E-03
  10.060     4.6452E-03
  10.080     7.9761E-03
  10.100     1.2900E-02
  10.120     2.0627E-02
  10.140     3.2227E-02
  10.160     5.0001E-02
  10.180     7.5545E-02
  10.200     1.1074E-01
  10.220     1.5356E-01
  10.240     2.0807E-01
  10.260     2.7227E-01
  10.280     3.4463E-01
  10.300     4.3445E-01
  10.320     5.2173E-01
  10.340     6.1521E-01
  10.360     7.0200E-01
  10.380     7.7698E-01
  10.400     8.4099E-01
  10.420     8.8586E-01
  10.440     9.1841E-01
  10.460     9.3837E-01
  10.480     9.5512E-01
  10.500     9.5959E-01
  10.520     9.6115E-01
  10.540     9.6494E-01
  10.560     9.7232E-01
  10.580     9.7247E-01
  10.600     9.6773E-01
  10.620     9.6102E-01
  10.640     9.7473E-01
  10.660     9.7451E-01
  10.680     9.9368E-01
  10.700     9.8649E-01
  10.720     9.9700E-01
  10.740     1.0000E+00
  10.760     9.9961E-01
  10.780     9.8938E-01
  10.800     9.7762E-01
  10.820     9.8638E-01
  10.840     9.9476E-01
  10.860     9.8885E-01
  10.880     9.8265E-01
  10.900     9.7301E-01
  10.920     9.7002E-01
  10.940     9.6011E-01
  10.960     9.5979E-01
  10.980     9.5986E-01
  11.000     9.3594E-01
  11.020     9.4132E-01
  11.040     9.3047E-01
  11.060     9.2911E-01
  11.080     9.2088E-01
  11.100     9.1154E-01
  11.120     9.0967E-01
  11.140     8.9268E-01
  11.160     8.8832E-01
  11.180     8.6102E-01
  11.200     8.4395E-01
  11.220     7.8712E-01
  11.240     7.3715E-01
  11.260     6.6806E-01
  11.280     5.8056E-01
  11.300     5.0304E-01
  11.320     4.1062E-01
  11.340     3.2347E-01
  11.360     2.4164E-01
  11.380     1.7292E-01
  11.400     1.2201E-01
  11.420     8.3555E-02
  11.440     5.7620E-02
  11.460     3.9189E-02
  11.480     2.6890E-02
  11.500     1.8626E-02
  11.520     1.2873E-02
  11.540     8.5899E-03
  11.560     5.5348E-03
  11.580     3.8567E-03
  11.600     2.0738E-03
  11.620     1.0736E-03
  11.640     3.0688E-04
  11.660    -2.2371E-04
  11.680    -1.1780E-04
  11.700    -4.8047E-04
  11.720    -8.8911E-04
  11.740    -1.0445E-03
  11.760    -9.9123E-04
  11.780    -1.0905E-03
  11.800    -1.1851E-03
  11.820    -7.1932E-04
  11.840    -7.7288E-04
  11.860    -1.1312E-03
  11.880    -1.1462E-03
  11.900    -9.6370E-04
  11.920    -7.6331E-04
  11.940    -7.1854E-04
  11.960    -6.8194E-04
  11.980    -1.0468E-03
  12.000    -2.7409E-04
  12.020    -6.4053E-04
  12.040    -6.4127E-04
  12.060    -8.2835E-04
  12.080    -7.8308E-04
  12.100    -4.0789E-04
  12.120    -5.8763E-04
  12.140    -3.5761E-04
  12.160    -9.8685E-04
  12.180    -8.8345E-04
  12.200    -1.1272E-03
  12.220    -8.3628E-04
  12.240    -7.4991E-04
  12.260    -8.5222E-04
  12.280    -8.6444E-04
  12.300    -7.8923E-04
  12.320    -1.1551E-03
  12.340    -8.6298E-04
  12.360    -7.9067E-04
  12.380    -1.2841E-03
  12.400    -1.3980E-03
  12.420    -5.2309E-04
  12.440     7.0705E-04
  12.460    -1.2969E-03
  12.480    -1.1000E-03
  12.500    -1.1896E-03
  12.520     1.0108E-05
  12.540     1.9474E-03
  12.560    -3.9400E-04
  12.580     3.0787E-03
  12.600     2.2264E-03
  12.620    -2.9207E-05
  12.640    -3.8597E-04
  12.660    -1.1220E-03
  12.680    -6.2125E-04
  12.700    -1.1212E-03
  12.720    -8.2469E-04
  12.740    -6.9329E-04
  12.760    -7.1305E-04
  12.780    -1.0039E-03
  12.800    -8.1531E-04
