 wavelength(num) SRF
   0.500    -5.0261E-03
   0.504     6.3735E-03
   0.508     2.9337E-03
   0.512    -5.8908E-03
   0.516     4.3506E-03
   0.520    -4.7338E-03
   0.524    -3.6317E-03
   0.528    -2.8002E-03
   0.532     2.4736E-03
   0.536    -3.8531E-03
   0.540    -5.5811E-03
   0.544    -1.8047E-03
   0.548     2.8162E-03
   0.552    -1.0478E-04
   0.556    -1.7851E-03
   0.560     1.3201E-03
   0.564     2.4365E-03
   0.568    -2.6308E-04
   0.572    -1.9784E-03
   0.576    -1.0509E-03
   0.580    -4.8359E-04
   0.584    -3.0880E-04
   0.588     1.0308E-03
   0.592     2.0307E-04
   0.596     1.8671E-03
   0.600     2.0190E-03
   0.604     3.9268E-04
   0.608     1.7316E-04
   0.612    -1.6066E-03
   0.616     5.3819E-05
   0.620    -1.3930E-04
   0.624     5.1013E-04
   0.628     6.3060E-04
   0.632     6.7945E-04
   0.636     1.8426E-04
   0.640     8.9384E-05
   0.644    -7.0120E-04
   0.648    -3.8943E-04
   0.652     9.4570E-05
   0.656    -3.6516E-04
   0.660     4.6551E-04
   0.664     1.2291E-03
   0.668    -5.8268E-04
   0.672     2.2996E-04
   0.676     6.5962E-04
   0.680     9.6439E-04
   0.684     2.9117E-04
   0.688    -6.6994E-04
   0.692    -8.1379E-04
   0.696     2.0777E-05
   0.700     4.1248E-03
   0.704     4.9883E-02
   0.708     1.6646E-01
   0.712     2.1896E-01
   0.716     2.2092E-01
   0.720     2.3091E-01
   0.724     2.6893E-01
   0.728     3.5781E-01
   0.732     5.7614E-01
   0.736     8.3174E-01
   0.740     8.6574E-01
   0.744     8.7314E-01
   0.748     9.0842E-01
   0.752     9.3928E-01
   0.756     9.5824E-01
   0.760     9.7731E-01
   0.764     9.8472E-01
   0.768     1.0000E+00
   0.772     9.9069E-01
   0.776     9.9136E-01
   0.780     9.8762E-01
   0.784     9.7624E-01
   0.788     9.8295E-01
   0.792     9.9059E-01
   0.796     9.9221E-01
   0.800     9.8953E-01
   0.804     9.7948E-01
   0.808     9.8666E-01
   0.812     9.8475E-01
   0.816     9.8296E-01
   0.820     9.7133E-01
   0.824     9.5878E-01
   0.828     9.5319E-01
   0.832     9.5154E-01
   0.836     9.4219E-01
   0.840     8.9081E-01
   0.844     9.1471E-01
   0.848     8.9603E-01
   0.852     8.7506E-01
   0.856     8.7178E-01
   0.860     8.6962E-01
   0.864     8.7270E-01
   0.868     8.7396E-01
   0.872     8.7461E-01
   0.876     8.6916E-01
   0.880     8.5654E-01
   0.884     8.4021E-01
   0.888     8.2235E-01
   0.892     8.0865E-01
   0.896     7.9412E-01
   0.900     7.7293E-01
   0.904     7.6644E-01
   0.908     7.5983E-01
   0.912     7.5791E-01
   0.916     7.5408E-01
   0.920     7.4768E-01
   0.924     7.3407E-01
   0.928     7.1713E-01
   0.932     6.9676E-01
   0.936     6.7667E-01
   0.940     6.5775E-01
   0.944     6.3547E-01
   0.948     6.1595E-01
   0.952     5.9274E-01
   0.956     5.6570E-01
   0.960     5.4043E-01
   0.964     5.1978E-01
   0.968     5.0162E-01
   0.972     4.8427E-01
   0.976     4.6435E-01
   0.980     4.3105E-01
   0.984     3.6929E-01
   0.988     2.7605E-01
   0.992     1.7687E-01
   0.996     1.0340E-01
   1.000     5.8061E-02
   1.004     3.1059E-02
   1.008     1.7129E-02
   1.012     9.0969E-03
   1.016     5.0946E-03
   1.020     2.8882E-03
   1.024     1.7904E-03
   1.028     8.6130E-04
   1.032     3.0328E-04
   1.036     4.4367E-04
   1.040     2.8758E-06
   1.044     3.0576E-05
   1.048     5.9338E-05
   1.052     1.8313E-04
   1.056    -2.3012E-05
   1.060    -4.5070E-05
   1.064     1.1312E-05
   1.068    -9.9343E-05
   1.072     2.2232E-04
