 wavelength(num) SRF 
  10.000     5.6318E-04
  10.020    -6.2907E-04
  10.040    -2.1863E-04
  10.060    -7.2595E-04
  10.080    -3.3386E-04
  10.100    -5.4509E-04
  10.120    -6.0754E-04
  10.140    -1.0729E-03
  10.160    -3.5918E-04
  10.180     5.2489E-05
  10.200    -4.1883E-04
  10.220    -6.2141E-04
  10.240    -8.1826E-04
  10.260    -8.3298E-04
  10.280    -7.8193E-04
  10.300    -4.8686E-04
  10.320     6.6547E-05
  10.340    -9.0574E-04
  10.360    -4.3211E-04
  10.380    -9.8842E-04
  10.400     4.4988E-05
  10.420    -9.5159E-04
  10.440     3.0212E-03
  10.460    -1.2660E-03
  10.480     1.1384E-03
  10.500     2.7697E-03
  10.520     4.4942E-04
  10.540     3.2148E-03
  10.560     2.9338E-03
  10.580     5.3494E-04
  10.600     6.3912E-04
  10.620     3.3580E-03
  10.640     7.8403E-04
  10.660     2.3227E-03
  10.680     7.4448E-04
  10.700     1.2925E-03
  10.720     9.8164E-04
  10.740     2.0132E-03
  10.760     2.7512E-03
  10.780     5.9896E-04
  10.800    -2.7322E-04
  10.820     1.0441E-03
  10.840     8.5037E-05
  10.860     2.8112E-03
  10.880     1.0848E-03
  10.900     5.2293E-04
  10.920     1.5944E-03
  10.940     1.0311E-03
  10.960    -9.9573E-05
  10.980     4.1718E-04
  11.000    -7.0797E-04
  11.020    -1.5227E-03
  11.040    -8.9280E-04
  11.060    -1.9214E-04
  11.080    -1.3871E-03
  11.100     8.4211E-04
  11.120     5.7674E-04
  11.140    -1.2968E-04
  11.160    -1.6632E-03
  11.180    -9.1153E-04
  11.200    -8.5143E-04
  11.220    -1.4113E-03
  11.240    -9.4531E-04
  11.260     4.3440E-04
  11.280    -1.1453E-03
  11.300    -1.2577E-03
  11.320    -1.1730E-03
  11.340    -5.8341E-04
  11.360    -4.9172E-04
  11.380    -8.7076E-04
  11.400    -3.6770E-04
  11.420     1.2294E-03
  11.440     2.0724E-03
  11.460     9.8480E-03
  11.480     2.5554E-02
  11.500     6.0109E-02
  11.520     1.3300E-01
  11.540     2.7534E-01
  11.560     4.8804E-01
  11.580     7.1559E-01
  11.600     8.6876E-01
  11.620     9.2259E-01
  11.640     9.1984E-01
  11.660     9.2366E-01
  11.680     9.2348E-01
  11.700     9.3083E-01
  11.720     9.5631E-01
  11.740     9.5621E-01
  11.760     9.6991E-01
  11.780     9.7494E-01
  11.800     9.8129E-01
  11.820     9.7413E-01
  11.840     9.7974E-01
  11.860     9.8314E-01
  11.880     9.7241E-01
  11.900     9.7657E-01
  11.920     9.7378E-01
  11.940     9.7118E-01
  11.960     9.7575E-01
  11.980     9.8938E-01
  12.000     9.7946E-01
  12.020     9.8884E-01
  12.040     9.9137E-01
  12.060     1.0000E+00
  12.080     9.8730E-01
  12.100     9.7913E-01
  12.120     9.7358E-01
  12.140     9.6800E-01
  12.160     9.5843E-01
  12.180     9.5541E-01
  12.200     9.4383E-01
  12.220     9.4400E-01
  12.240     9.4149E-01
  12.260     9.3329E-01
  12.280     9.4086E-01
  12.300     9.4037E-01
  12.320     9.4119E-01
  12.340     9.3364E-01
  12.360     9.3111E-01
  12.380     9.2813E-01
  12.400     9.2528E-01
  12.420     9.2541E-01
  12.440     9.1432E-01
  12.460     9.0642E-01
  12.480     8.9346E-01
  12.500     8.4529E-01
  12.520     7.2033E-01
  12.540     5.5962E-01
  12.560     3.7422E-01
  12.580     2.1811E-01
  12.600     1.1665E-01
  12.620     5.0735E-02
  12.640     2.4995E-02
  12.660     1.2569E-02
  12.680     5.2662E-03
  12.700     1.7609E-03
  12.720    -2.0185E-03
  12.740     5.1316E-04
  12.760     1.5293E-03
  12.780    -1.5160E-03
  12.800    -3.1090E-03
  12.820     2.2310E-03
  12.840     1.0898E-03
  12.860    -6.9668E-04
  12.880     1.5709E-03
  12.900    -2.8091E-03
  12.920    -3.6009E-03
  12.940     1.1234E-03
  12.960    -2.8745E-03
  12.980     5.2712E-04
  13.000     2.1117E-03
  13.020     3.0497E-03
  13.040     1.7662E-03
  13.060     3.1135E-03
  13.080     2.1812E-03
  13.100     4.2311E-03
  13.120     6.5949E-04
  13.140    -3.9169E-03
  13.160     3.1409E-03
  13.180    -2.8488E-03
  13.200    -2.9508E-03
  13.220     1.1889E-03
  13.240     2.9075E-03
  13.260     8.3141E-03
  13.280     1.1068E-03
  13.300     1.3109E-03
  13.320    -1.0423E-03
  13.340     1.0096E-03
  13.360     9.3922E-04
  13.380    -3.0155E-03
  13.400    -1.0521E-03
  13.420    -2.0113E-03
  13.440    -4.9590E-03
  13.460    -1.8866E-03
  13.480     2.0419E-03
  13.500     8.1562E-04
  13.520     5.8922E-04
  13.540     4.0422E-03
  13.560     3.8654E-04
  13.580     1.4531E-03
  13.600     5.1084E-04
  13.620     3.8194E-03
  13.640     6.4042E-03
  13.660     1.3007E-03
  13.680     3.3742E-03
  13.700     5.1996E-03
  13.720     3.0482E-03
  13.740     3.8239E-04
  13.760     6.1277E-05
  13.780    -1.1969E-03
  13.800    -3.8475E-03
  13.820     4.8614E-03
  13.840    -3.2408E-03
  13.860    -8.7508E-04
  13.880     6.5528E-03
  13.900    -9.4813E-05
  13.920     3.9176E-03
  13.940    -1.6755E-03
  13.960    -3.2505E-03
  13.980    -2.4497E-03
  14.000     1.9097E-03
