     Wavelength (um)      Normalized RSF
           10.000000           -0.000400
           10.020000            0.000100
           10.040000           -0.000400
           10.060000           -0.000300
           10.080000            0.000300
           10.100000            0.000800
           10.120000           -0.000500
           10.140000           -0.000300
           10.160000            0.000000
           10.180000           -0.000400
           10.200000            0.000500
           10.220000           -0.000100
           10.240000            0.000100
           10.260000           -0.000300
           10.280000            0.000500
           10.300000           -0.000600
           10.320000            0.000300
           10.340000           -0.000500
           10.360000            0.000200
           10.380000            0.000200
           10.400000           -0.000100
           10.420000           -0.000200
           10.440000           -0.000600
           10.460000            0.000000
           10.480000           -0.000500
           10.500000            0.000600
           10.520000           -0.000200
           10.540000           -0.000400
           10.560000           -0.000200
           10.580000            0.000400
           10.600000            0.000200
           10.620000           -0.000300
           10.640000           -0.000300
           10.660000            0.000700
           10.680000            0.000200
           10.700000           -0.000600
           10.720000           -0.000600
           10.740000            0.000400
           10.760000           -0.000400
           10.780000            0.000000
           10.800000            0.000400
           10.820000           -0.000200
           10.840000            0.000600
           10.860000           -0.000300
           10.880000            0.000300
           10.900000           -0.000200
           10.920000            0.000300
           10.940000            0.000600
           10.960000            0.000500
           10.980000           -0.000100
           11.000000           -0.000200
           11.020000            0.000000
           11.040000            0.001200
           11.060000           -0.000600
           11.080000            0.000200
           11.100000            0.000700
           11.120000           -0.000200
           11.140000            0.000700
           11.160000           -0.000400
           11.180000            0.000400
           11.200000            0.000300
           11.220000           -0.000200
           11.240000            0.000500
           11.260000           -0.000100
           11.280000            0.000300
           11.300000            0.001000
           11.320000            0.002000
           11.340000            0.003700
           11.360000            0.007900
           11.380000            0.015700
           11.400000            0.028800
           11.420000            0.052300
           11.440000            0.089300
           11.460000            0.153200
           11.480000            0.246500
           11.500000            0.361700
           11.520000            0.483100
           11.540000            0.588500
           11.560000            0.676700
           11.580000            0.734800
           11.600000            0.778500
           11.620000            0.798500
           11.640000            0.824700
           11.660000            0.833100
           11.680000            0.853900
           11.700000            0.869400
           11.720000            0.884700
           11.740000            0.903500
           11.760000            0.927900
           11.780000            0.931400
           11.800000            0.937100
           11.820000            0.957200
           11.840000            0.980300
           11.860000            0.977800
           11.880000            0.990900
           11.900000            0.979800
           11.920000            0.994500
           11.940000            0.995600
           11.960000            0.998300
           11.980000            1.000000
           12.000000            0.991500
           12.020000            0.984800
           12.040000            0.984400
           12.060000            0.950900
           12.080000            0.935300
           12.100000            0.929500
           12.120000            0.908000
           12.140000            0.908200
           12.160000            0.893800
           12.180000            0.883300
           12.200000            0.887100
           12.220000            0.864100
           12.240000            0.883300
           12.260000            0.892700
           12.280000            0.899500
           12.300000            0.915900
           12.320000            0.931400
           12.340000            0.942500
           12.360000            0.941600
           12.380000            0.923400
           12.400000            0.965600
           12.420000            0.953700
           12.440000            0.976400
           12.460000            0.938800
           12.480000            0.826900
           12.500000            0.635300
           12.520000            0.428700
           12.540000            0.263300
           12.560000            0.149200
           12.580000            0.086800
           12.600000            0.049700
           12.620000            0.028000
           12.640000            0.017400
           12.660000            0.010200
           12.680000            0.005600
           12.700000            0.003300
           12.720000            0.001400
           12.740000            0.000600
           12.760000           -0.000600
           12.780000           -0.000400
           12.800000           -0.000700
           12.820000            0.001900
           12.840000            0.002900
           12.860000            0.000400
           12.880000            0.001200
           12.900000            0.000300
           12.920000           -0.001100
           12.940000            0.001200
           12.960000           -0.000600
           12.980000            0.001700
           13.000000            0.001600
           13.020000            0.001400
           13.040000           -0.001500
           13.060000            0.000500
           13.080000            0.000500
           13.100000            0.000800
           13.120000            0.002100
           13.140000            0.000400
           13.160000           -0.000100
           13.180000            0.000700
           13.200000            0.000000
           13.220000            0.000300
           13.240000           -0.000500
           13.260000            0.000800
           13.280000            0.002700
           13.300000           -0.000300
           13.320000            0.001200
           13.340000            0.002000
           13.360000            0.000100
           13.380000            0.000300
           13.400000           -0.000100
           13.420000            0.003100
           13.440000            0.000000
           13.460000            0.000100
           13.480000           -0.001200
           13.500000            0.005100
           13.520000           -0.001600
           13.540000            0.002100
           13.560000            0.001700
           13.580000           -0.000900
           13.600000           -0.000100
           13.620000           -0.001000
           13.640000           -0.000800
           13.660000            0.000500
           13.680000           -0.001600
           13.700000           -0.001100
           13.720000            0.003300
           13.740000           -0.000900
           13.760000            0.000000
           13.780000            0.000700
           13.800000           -0.000700
           13.820000           -0.000500
           13.840000            0.002000
           13.860000            0.000300
           13.880000            0.000200
           13.900000           -0.001100
           13.920000            0.004100
           13.940000           -0.001300
           13.960000            0.000800
           13.980000            0.000800
           14.000000           -0.001300
